Voltage, ChB, Run #5
Time ( s )	Voltage ( V )
0,0000	0,020
0,0250	0,021
0,0500	0,019
0,0750	0,017
0,1000	0,016
0,1250	0,012
0,1500	0,013
0,1750	0,015
0,2000	0,015
0,2250	0,024
0,2500	0,024
0,2750	0,016
0,3000	0,017
0,3250	0,014
0,3500	0,014
0,3750	0,018
0,4000	0,019
0,4250	0,017
0,4500	0,016
0,4750	0,016
0,5000	0,015
0,5250	0,020
0,5500	0,021
0,5750	0,015
0,6000	0,016
0,6250	0,018
0,6500	0,018
0,6750	0,020
0,7000	0,020
0,7250	0,019
0,7500	0,020
0,7750	0,018
0,8000	0,018
0,8250	0,018
0,8500	0,020
0,8750	0,015
0,9000	0,013
0,9250	0,012
0,9500	0,015
0,9750	0,016
1,0000	0,020
1,0250	0,023
1,0500	0,023
1,0750	0,014
1,1000	0,016
1,1250	0,018
1,1500	0,019
1,1750	0,019
1,2000	0,021
1,2250	0,016
1,2500	0,017
1,2750	0,018
1,3000	0,018
1,3250	0,021
1,3500	0,024
1,3750	0,011
1,4000	0,015
1,4250	0,021
1,4500	0,023
1,4750	0,018
1,5000	0,020
1,5250	0,016
1,5500	0,016
1,5750	0,017
1,6000	0,018
1,6250	0,018
1,6500	0,019
1,6750	0,015
1,7000	0,016
1,7250	0,022
1,7500	0,023
1,7750	0,017
1,8000	0,019
1,8250	0,015
1,8500	0,017
1,8750	0,019
1,9000	0,020
1,9250	0,012
1,9500	0,013
1,9750	0,015
2,0000	0,016
2,0250	0,016
2,0500	0,017
2,0750	0,011
2,1000	0,013
2,1250	0,013
2,1500	0,016
2,1750	0,020
2,2000	0,020
2,2250	0,013
2,2500	0,015
2,2750	0,020
2,3000	0,018
2,3250	0,020
2,3500	0,018
2,3750	0,016
2,4000	0,017
2,4250	0,013
2,4500	0,016
2,4750	0,021
2,5000	0,023
2,5250	0,014
2,5500	0,015
2,5750	0,018
2,6000	0,018
2,6250	0,019
2,6500	0,021
2,6750	0,016
2,7000	0,015
2,7250	0,015
2,7500	0,017
2,7750	0,022
2,8000	0,025
2,8250	0,016
2,8500	0,016
2,8750	0,016
2,9000	0,019
2,9250	0,015
2,9500	0,020
2,9750	0,016
3,0000	0,018
3,0250	0,015
3,0500	0,016
3,0750	0,020
3,1000	0,020
3,1250	0,017
3,1500	0,015
3,1750	0,016
3,2000	0,017
3,2250	0,020
3,2500	0,020
3,2750	0,016
3,3000	0,017
3,3250	0,014
3,3500	0,015
3,3750	0,021
3,4000	0,023
3,4250	0,012
3,4500	0,015
3,4750	0,013
3,5000	0,015
3,5250	0,020
3,5500	0,021
3,5750	0,017
3,6000	0,019
3,6250	0,016
3,6500	0,018
3,6750	0,020
3,7000	0,021
3,7250	0,018
3,7500	0,018
3,7750	0,011
3,8000	0,012
3,8250	0,018
3,8500	0,018
3,8750	0,017
3,9000	0,019
3,9250	0,014
3,9500	0,017
3,9750	0,020
4,0000	0,023
4,0250	0,015
4,0500	0,018
4,0750	0,017
4,1000	0,020
4,1250	0,015
4,1500	0,018
4,1750	0,014
4,2000	0,018
4,2250	0,015
4,2500	0,015
4,2750	0,018
4,3000	0,019
4,3250	0,013
4,3500	0,012
4,3750	0,020
4,4000	0,021
4,4250	0,020
4,4500	0,020
4,4750	0,016
4,5000	0,016
4,5250	0,016
4,5500	0,018
4,5750	0,018
4,6000	0,021
4,6250	0,011
4,6500	0,014
4,6750	0,017
4,7000	0,020
4,7250	0,013
4,7500	0,015
4,7750	0,016
4,8000	0,018
4,8250	0,018
4,8500	0,018
4,8750	0,025
4,9000	0,027
4,9250	0,018
4,9500	0,015
4,9750	0,019
5,0000	0,018
5,0250	0,012
5,0500	0,012
5,0750	0,015
5,1000	0,016
5,1250	0,018
5,1500	0,020
5,1750	0,020
5,2000	0,022
5,2250	0,016
5,2500	0,020
5,2750	0,016
5,3000	0,018
5,3250	0,012
5,3500	0,012
5,3750	0,014
5,4000	0,016
5,4250	0,016
5,4500	0,018
5,4750	0,015
5,5000	0,014
5,5250	0,014
5,5500	0,016
5,5750	0,020
5,6000	0,019
5,6250	0,022
5,6500	0,021
5,6750	0,020
5,7000	0,019
5,7250	0,015
5,7500	0,015
5,7750	0,016
5,8000	0,018
5,8250	0,015
5,8500	0,017
5,8750	0,021
5,9000	0,021
5,9250	0,020
5,9500	0,021
5,9750	0,016
6,0000	0,019
6,0250	0,017
6,0500	0,020
6,0750	0,016
6,1000	0,018
6,1250	0,020
6,1500	0,021
6,1750	0,015
6,2000	0,016
6,2250	0,017
6,2500	0,018
6,2750	0,012
6,3000	0,012
6,3250	0,020
6,3500	0,020
6,3750	0,016
6,4000	0,017
6,4250	0,012
6,4500	0,012
6,4750	0,025
6,5000	0,026
6,5250	0,026
6,5500	0,023
6,5750	0,024
6,6000	0,024
6,6250	0,025
6,6500	0,027
6,6750	0,027
6,7000	0,029
6,7250	0,029
6,7500	0,031
6,7750	0,029
6,8000	0,034
6,8250	0,034
6,8500	0,031
6,8750	0,030
6,9000	0,040
6,9250	0,040
6,9500	0,042
6,9750	0,041
7,0000	0,044
7,0250	0,040
7,0500	0,046
7,0750	0,046
7,1000	0,048
7,1250	0,045
7,1500	0,051
7,1750	0,049
7,2000	0,053
7,2250	0,051
7,2500	0,052
7,2750	0,054
7,3000	0,062
7,3250	0,063
7,3500	0,058
7,3750	0,057
7,4000	0,066
7,4250	0,065
7,4500	0,067
7,4750	0,066
7,5000	0,067
7,5250	0,066
7,5500	0,070
7,5750	0,070
7,6000	0,072
7,6250	0,071
7,6500	0,073
7,6750	0,074
7,7000	0,071
7,7250	0,068
7,7500	0,078
7,7750	0,077
7,8000	0,087
7,8250	0,084
7,8500	0,082
7,8750	0,082
7,9000	0,090
7,9250	0,089
7,9500	0,092
7,9750	0,092
8,0000	0,091
8,0250	0,091
8,0500	0,096
8,0750	0,096
8,1000	0,097
8,1250	0,098
8,1500	0,099
8,1750	0,099
8,2000	0,104
8,2250	0,105
8,2500	0,104
8,2750	0,106
8,3000	0,110
8,3250	0,113
8,3500	0,111
8,3750	0,112
8,4000	0,109
8,4250	0,112
8,4500	0,118
8,4750	0,119
8,5000	0,119
8,5250	0,120
8,5500	0,115
8,5750	0,118
8,6000	0,124
8,6250	0,125
8,6500	0,123
8,6750	0,125
8,7000	0,133
8,7250	0,131
8,7500	0,134
8,7750	0,134
8,8000	0,137
8,8250	0,137
8,8500	0,142
8,8750	0,140
8,9000	0,142
8,9250	0,142
8,9500	0,145
8,9750	0,146
9,0000	0,147
9,0250	0,148
9,0500	0,148
9,0750	0,151
9,1000	0,151
9,1250	0,150
9,1500	0,155
9,1750	0,155
9,2000	0,159
9,2250	0,159
9,2500	0,160
9,2750	0,161
9,3000	0,173
9,3250	0,174
9,3500	0,165
9,3750	0,167
9,4000	0,169
9,4250	0,170
9,4500	0,170
9,4750	0,172
9,5000	0,176
9,5250	0,174
9,5500	0,178
9,5750	0,176
9,6000	0,184
9,6250	0,184
9,6500	0,179
9,6750	0,181
9,7000	0,190
9,7250	0,190
9,7500	0,190
9,7750	0,191
9,8000	0,193
9,8250	0,192
9,8500	0,192
9,8750	0,192
9,9000	0,197
9,9250	0,197
9,9500	0,196
9,9750	0,197
10,0000	0,201
10,0250	0,204
10,0500	0,197
10,0750	0,198
10,1000	0,214
10,1250	0,212
10,1500	0,205
10,1750	0,203
10,2000	0,219
10,2250	0,219
10,2500	0,212
10,2750	0,212
10,3000	0,220
10,3250	0,222
10,3500	0,218
10,3750	0,220
10,4000	0,223
10,4250	0,223
10,4500	0,219
10,4750	0,220
10,5000	0,234
10,5250	0,233
10,5500	0,225
10,5750	0,224
10,6000	0,237
10,6250	0,239
10,6500	0,233
10,6750	0,234
10,7000	0,240
10,7250	0,241
10,7500	0,234
10,7750	0,236
10,8000	0,244
10,8250	0,244
10,8500	0,243
10,8750	0,242
10,9000	0,254
10,9250	0,253
10,9500	0,246
10,9750	0,246
11,0000	0,254
11,0250	0,258
11,0500	0,245
11,0750	0,247
11,1000	0,261
11,1250	0,263
11,1500	0,253
11,1750	0,254
11,2000	0,264
11,2250	0,265
11,2500	0,262
11,2750	0,263
11,3000	0,275
11,3250	0,276
11,3500	0,267
11,3750	0,269
11,4000	0,280
11,4250	0,280
11,4500	0,271
11,4750	0,273
11,5000	0,279
11,5250	0,282
11,5500	0,281
11,5750	0,284
11,6000	0,282
11,6250	0,284
11,6500	0,280
11,6750	0,283
11,7000	0,293
11,7250	0,292
11,7500	0,284
11,7750	0,286
11,8000	0,298
11,8250	0,298
11,8500	0,291
11,8750	0,294
11,9000	0,313
11,9250	0,316
11,9500	0,315
11,9750	0,317
12,0000	0,335
12,0250	0,336
12,0500	0,334
12,0750	0,336
12,1000	0,355
12,1250	0,353
12,1500	0,353
12,1750	0,353
12,2000	0,363
12,2250	0,364
12,2500	0,359
12,2750	0,361
12,3000	0,370
12,3250	0,372
12,3500	0,363
12,3750	0,366
12,4000	0,385
12,4250	0,388
12,4500	0,380
12,4750	0,381
12,5000	0,384
12,5250	0,385
12,5500	0,386
12,5750	0,388
12,6000	0,386
12,6250	0,389
12,6500	0,390
12,6750	0,390
12,7000	0,392
12,7250	0,395
12,7500	0,385
12,7750	0,388
12,8000	0,391
12,8250	0,391
12,8500	0,393
12,8750	0,394
12,9000	0,380
12,9250	0,380
12,9500	0,384
12,9750	0,385
13,0000	0,383
13,0250	0,382
13,0500	0,381
13,0750	0,377
13,1000	0,378
13,1250	0,380
13,1500	0,380
13,1750	0,379
13,2000	0,381
13,2250	0,380
13,2500	0,379
13,2750	0,377
13,3000	0,375
13,3250	0,388
13,3500	0,387
13,3750	0,388
13,4000	0,388
13,4250	0,390
13,4500	0,391
13,4750	0,397
13,5000	0,396
13,5250	0,398
13,5500	0,396
13,5750	0,397
13,6000	0,397
13,6250	0,399
13,6500	0,401
13,6750	0,405
13,7000	0,405
13,7250	0,401
13,7500	0,400
13,7750	0,406
13,8000	0,404
13,8250	0,403
13,8500	0,403
13,8750	0,415
13,9000	0,415
13,9250	0,403
13,9500	0,407
13,9750	0,408
14,0000	0,410
14,0250	0,412
14,0500	0,411
14,0750	0,414
14,1000	0,413
14,1250	0,416
14,1500	0,415
14,1750	0,421
14,2000	0,422
14,2250	0,417
14,2500	0,419
14,2750	0,420
14,3000	0,419
14,3250	0,418
14,3500	0,419
14,3750	0,427
14,4000	0,425
14,4250	0,424
14,4500	0,425
14,4750	0,426
14,5000	0,428
14,5250	0,430
14,5500	0,428
14,5750	0,428
14,6000	0,427
14,6250	0,441
14,6500	0,439
14,6750	0,438
14,7000	0,441
14,7250	0,439
14,7500	0,438
14,7750	0,443
14,8000	0,441
14,8250	0,446
14,8500	0,445
14,8750	0,443
14,9000	0,444
14,9250	0,447
14,9500	0,449
14,9750	0,454
15,0000	0,452
15,0250	0,455
15,0500	0,452
15,0750	0,458
15,1000	0,459
15,1250	0,459
15,1500	0,459
15,1750	0,465
15,2000	0,464
15,2250	0,462
15,2500	0,463
15,2750	0,470
15,3000	0,471
15,3250	0,472
15,3500	0,472
15,3750	0,472
15,4000	0,471
15,4250	0,475
15,4500	0,477
15,4750	0,481
15,5000	0,480
15,5250	0,483
15,5500	0,485
15,5750	0,490
15,6000	0,491
15,6250	0,490
15,6500	0,487
15,6750	0,491
15,7000	0,493
15,7250	0,491
15,7500	0,494
15,7750	0,493
15,8000	0,493
15,8250	0,503
15,8500	0,501
15,8750	0,507
15,9000	0,509
15,9250	0,508
15,9500	0,507
15,9750	0,508
16,0000	0,508
16,0250	0,510
16,0500	0,510
16,0750	0,511
16,1000	0,512
16,1250	0,518
16,1500	0,516
16,1750	0,516
16,2000	0,518
16,2250	0,523
16,2500	0,522
16,2750	0,528
16,3000	0,526
16,3250	0,531
16,3500	0,532
16,3750	0,534
16,4000	0,533
16,4250	0,536
16,4500	0,535
16,4750	0,541
16,5000	0,543
16,5250	0,538
16,5500	0,538
16,5750	0,546
16,6000	0,544
16,6250	0,550
16,6500	0,553
16,6750	0,549
16,7000	0,551
16,7250	0,561
16,7500	0,560
16,7750	0,560
16,8000	0,560
16,8250	0,562
16,8500	0,562
16,8750	0,562
16,9000	0,563
16,9250	0,568
16,9500	0,566
16,9750	0,574
17,0000	0,574
17,0250	0,574
17,0500	0,575
17,0750	0,571
17,1000	0,571
17,1250	0,586
17,1500	0,585
17,1750	0,577
17,2000	0,580
17,2250	0,588
17,2500	0,586
17,2750	0,588
17,3000	0,587
17,3250	0,589
17,3500	0,593
17,3750	0,595
17,4000	0,596
17,4250	0,596
17,4500	0,597
17,4750	0,595
17,5000	0,595
17,5250	0,606
17,5500	0,605
17,5750	0,602
17,6000	0,605
17,6250	0,614
17,6500	0,613
17,6750	0,611
17,7000	0,609
17,7250	0,613
17,7500	0,615
17,7750	0,616
17,8000	0,616
17,8250	0,619
17,8500	0,621
17,8750	0,616
17,9000	0,618
17,9250	0,626
17,9500	0,624
17,9750	0,626
18,0000	0,627
18,0250	0,635
18,0500	0,637
18,0750	0,637
18,1000	0,637
18,1250	0,645
18,1500	0,646
18,1750	0,641
18,2000	0,639
18,2250	0,644
18,2500	0,645
18,2750	0,645
18,3000	0,646
18,3250	0,654
18,3500	0,654
18,3750	0,648
18,4000	0,650
18,4250	0,660
18,4500	0,660
18,4750	0,657
18,5000	0,657
18,5250	0,667
18,5500	0,668
18,5750	0,664
18,6000	0,663
18,6250	0,667
18,6500	0,669
18,6750	0,668
18,7000	0,667
18,7250	0,676
18,7500	0,678
18,7750	0,675
18,8000	0,676
18,8250	0,688
18,8500	0,687
18,8750	0,675
18,9000	0,677
18,9250	0,689
18,9500	0,688
18,9750	0,689
19,0000	0,690
19,0250	0,695
19,0500	0,695
19,0750	0,697
19,1000	0,696
19,1250	0,698
19,1500	0,697
19,1750	0,692
19,2000	0,692
19,2250	0,703
19,2500	0,704
19,2750	0,703
19,3000	0,704
19,3250	0,711
19,3500	0,714
19,3750	0,708
19,4000	0,710
19,4250	0,709
19,4500	0,718
19,4750	0,718
19,5000	0,723
19,5250	0,723
19,5500	0,723
19,5750	0,723
19,6000	0,725
19,6250	0,725
19,6500	0,727
19,6750	0,729
19,7000	0,726
19,7250	0,729
19,7500	0,740
19,7750	0,740
19,8000	0,732
19,8250	0,735
19,8500	0,740
19,8750	0,742
19,9000	0,740
19,9250	0,742
19,9500	0,744
19,9750	0,748
20,0000	0,748
20,0250	0,749
20,0500	0,750
20,0750	0,753
20,1000	0,744
20,1250	0,745
20,1500	0,757
20,1750	0,761
20,2000	0,756
20,2250	0,756
20,2500	0,768
20,2750	0,766
20,3000	0,762
20,3250	0,764
20,3500	0,767
20,3750	0,766
20,4000	0,770
20,4250	0,770
20,4500	0,775
20,4750	0,776
20,5000	0,769
20,5250	0,770
20,5500	0,776
20,5750	0,779
20,6000	0,775
20,6250	0,776
20,6500	0,784
20,6750	0,787
20,7000	0,786
20,7250	0,786
20,7500	0,795
20,7750	0,797
20,8000	0,792
20,8250	0,792
20,8500	0,795
20,8750	0,795
20,9000	0,795
20,9250	0,797
20,9500	0,798
20,9750	0,800
21,0000	0,800
21,0250	0,801
21,0500	0,812
21,0750	0,811
21,1000	0,801
21,1250	0,802
21,1500	0,815
21,1750	0,815
21,2000	0,819
21,2250	0,817
21,2500	0,819
21,2750	0,823
21,3000	0,827
21,3250	0,827
21,3500	0,827
21,3750	0,830
21,4000	0,822
21,4250	0,822
21,4500	0,835
21,4750	0,834
21,5000	0,830
21,5250	0,831
21,5500	0,842
21,5750	0,844
21,6000	0,839
21,6250	0,840
21,6500	0,851
21,6750	0,850
21,7000	0,852
21,7250	0,853
21,7500	0,864
21,7750	0,862
21,8000	0,857
21,8250	0,858
21,8500	0,873
21,8750	0,875
21,9000	0,872
21,9250	0,872
21,9500	0,894
21,9750	0,895
22,0000	0,890
22,0250	0,891
22,0500	0,900
22,0750	0,900
22,1000	0,902
22,1250	0,900
22,1500	0,910
22,1750	0,911
22,2000	0,902
22,2250	0,902
22,2500	0,921
22,2750	0,923
22,3000	0,914
22,3250	0,913
22,3500	0,922
22,3750	0,923
22,4000	0,922
22,4250	0,920
22,4500	0,925
22,4750	0,926
22,5000	0,928
22,5250	0,927
22,5500	0,928
22,5750	0,930
22,6000	0,920
22,6250	0,919
22,6500	0,934
22,6750	0,936
22,7000	0,930
22,7250	0,929
22,7500	0,934
22,7750	0,936
22,8000	0,931
22,8250	0,930
22,8500	0,938
22,8750	0,938
22,9000	0,939
22,9250	0,938
22,9500	0,944
22,9750	0,943
23,0000	0,940
23,0250	0,941
23,0500	0,948
23,0750	0,947
23,1000	0,946
23,1250	0,946
23,1500	0,955
23,1750	0,955
23,2000	0,955
23,2250	0,956
23,2500	0,958
23,2750	0,961
23,3000	0,963
23,3250	0,962
23,3500	0,970
23,3750	0,969
23,4000	0,970
23,4250	0,967
23,4500	0,977
23,4750	0,978
23,5000	0,976
23,5250	0,975
23,5500	0,984
23,5750	0,983
23,6000	0,981
23,6250	0,981
23,6500	0,983
23,6750	0,982
23,7000	0,988
23,7250	0,989
23,7500	0,992
23,7750	0,994
23,8000	0,995
23,8250	0,994
23,8500	0,997
23,8750	0,997
23,9000	0,998
23,9250	1,000
23,9500	1,001
23,9750	0,999
24,0000	1,003
24,0250	1,003
24,0500	1,007
24,0750	1,008
24,1000	1,011
24,1250	1,010
24,1500	1,010
24,1750	1,012
24,2000	1,016
24,2250	1,015
24,2500	1,018
24,2750	1,017
24,3000	1,019
24,3250	1,019
24,3500	1,027
24,3750	1,028
24,4000	1,030
24,4250	1,029
24,4500	1,030
24,4750	1,030
24,5000	1,037
24,5250	1,036
24,5500	1,036
24,5750	1,034
24,6000	1,041
24,6250	1,041
24,6500	1,043
24,6750	1,043
24,7000	1,048
24,7250	1,047
24,7500	1,052
24,7750	1,054
24,8000	1,055
24,8250	1,055
24,8500	1,057
24,8750	1,057
24,9000	1,061
24,9250	1,062
24,9500	1,063
24,9750	1,061
25,0000	1,065
25,0250	1,067
25,0500	1,069
25,0750	1,071
25,1000	1,074
25,1250	1,073
25,1500	1,079
25,1750	1,079
25,2000	1,079
25,2250	1,081
25,2500	1,079
25,2750	1,079
25,3000	1,085
25,3250	1,085
25,3500	1,085
25,3750	1,086
25,4000	1,097
25,4250	1,096
25,4500	1,102
25,4750	1,100
25,5000	1,099
25,5250	1,100
25,5500	1,106
25,5750	1,104
25,6000	1,112
25,6250	1,111
25,6500	1,109
25,6750	1,110
25,7000	1,115
25,7250	1,113
25,7500	1,118
25,7750	1,118
25,8000	1,122
25,8250	1,122
25,8500	1,124
25,8750	1,129
25,9000	1,130
25,9250	1,123
25,9500	1,123
25,9750	1,128
26,0000	1,129
26,0250	1,140
26,0500	1,141
26,0750	1,137
26,1000	1,137
26,1250	1,147
26,1500	1,146
26,1750	1,147
26,2000	1,150
26,2250	1,149
26,2500	1,151
26,2750	1,157
26,3000	1,160
26,3250	1,155
26,3500	1,158
26,3750	1,163
26,4000	1,164
26,4250	1,169
26,4500	1,169
26,4750	1,169
26,5000	1,171
26,5250	1,169
26,5500	1,169
26,5750	1,180
26,6000	1,180
26,6250	1,178
26,6500	1,178
26,6750	1,187
26,7000	1,188
26,7250	1,188
26,7500	1,187
26,7750	1,193
26,8000	1,193
26,8250	1,197
26,8500	1,200
26,8750	1,198
26,9000	1,201
26,9250	1,198
26,9500	1,196
26,9750	1,210
27,0000	1,209
27,0250	1,211
27,0500	1,212
27,0750	1,212
27,1000	1,213
27,1250	1,214
27,1500	1,214
27,1750	1,221
27,2000	1,224
27,2250	1,221
27,2500	1,221
27,2750	1,227
27,3000	1,229
27,3250	1,229
27,3500	1,230
27,3750	1,240
27,4000	1,242
27,4250	1,235
27,4500	1,234
27,4750	1,249
27,5000	1,251
27,5250	1,248
27,5500	1,248
27,5750	1,258
27,6000	1,257
27,6250	1,249
27,6500	1,252
27,6750	1,263
27,7000	1,264
27,7250	1,262
27,7500	1,262
27,7750	1,273
27,8000	1,272
27,8250	1,268
27,8500	1,270
27,8750	1,278
27,9000	1,278
27,9250	1,278
27,9500	1,280
27,9750	1,287
28,0000	1,287
28,0250	1,284
28,0500	1,283
28,0750	1,296
28,1000	1,298
28,1250	1,288
28,1500	1,287
28,1750	1,304
28,2000	1,306
28,2250	1,299
28,2500	1,300
28,2750	1,309
28,3000	1,309
28,3250	1,309
28,3500	1,310
28,3750	1,313
28,4000	1,316
28,4250	1,310
28,4500	1,310
28,4750	1,326
28,5000	1,326
28,5250	1,318
28,5500	1,319
28,5750	1,334
28,6000	1,333
28,6250	1,332
28,6500	1,334
28,6750	1,339
28,7000	1,340
28,7250	1,338
28,7500	1,336
28,7750	1,346
28,8000	1,348
28,8250	1,345
28,8500	1,343
28,8750	1,358
28,9000	1,359
28,9250	1,351
28,9500	1,351
28,9750	1,365
29,0000	1,364
29,0250	1,361
29,0500	1,364
29,0750	1,367
29,1000	1,370
29,1250	1,373
29,1500	1,372
29,1750	1,376
29,2000	1,376
29,2250	1,372
29,2500	1,374
29,2750	1,386
29,3000	1,388
29,3250	1,388
29,3500	1,386
29,3750	1,393
29,4000	1,395
29,4250	1,392
29,4500	1,393
29,4750	1,400
29,5000	1,400
29,5250	1,400
29,5500	1,398
29,5750	1,409
29,6000	1,411
29,6250	1,411
29,6500	1,411
29,6750	1,422
29,7000	1,422
29,7250	1,417
29,7500	1,419
29,7750	1,423
29,8000	1,426
29,8250	1,429
29,8500	1,428
29,8750	1,432
29,9000	1,434
29,9250	1,428
29,9500	1,429
29,9750	1,445
30,0000	1,445
30,0250	1,442
30,0500	1,440
30,0750	1,451
30,1000	1,455
30,1250	1,451
30,1500	1,453
30,1750	1,457
30,2000	1,458
30,2250	1,455
30,2500	1,455
30,2750	1,465
30,3000	1,470
30,3250	1,462
30,3500	1,464
30,3750	1,476
30,4000	1,475
30,4250	1,471
30,4500	1,471
30,4750	1,481
30,5000	1,484
30,5250	1,482
30,5500	1,481
30,5750	1,492
30,6000	1,491
30,6250	1,486
30,6500	1,486
30,6750	1,491
30,7000	1,495
30,7250	1,486
30,7500	1,486
30,7750	1,506
30,8000	1,505
30,8250	1,495
30,8500	1,497
30,8750	1,511
30,9000	1,513
30,9250	1,512
30,9500	1,511
30,9750	1,517
31,0000	1,519
31,0250	1,515
31,0500	1,517
31,0750	1,528
31,1000	1,530
31,1250	1,525
31,1500	1,525
31,1750	1,538
31,2000	1,541
31,2250	1,536
31,2500	1,534
31,2750	1,542
31,3000	1,542
31,3250	1,544
31,3500	1,546
31,3750	1,552
31,4000	1,552
31,4250	1,547
31,4500	1,548
31,4750	1,548
31,5000	1,548
31,5250	1,549
31,5500	0,035
31,5750	0,034
31,6000	0,017
31,6250	0,017
31,6500	0,018
31,6750	0,020
31,7000	0,018
31,7250	0,020
31,7500	0,018
31,7750	0,016
31,8000	0,016
31,8250	0,015
31,8500	0,020
31,8750	0,020
31,9000	0,017
31,9250	0,018
31,9500	0,016
31,9750	0,016
32,0000	0,020
32,0250	0,016
32,0500	0,021
32,0750	0,022
32,1000	0,015
32,1250	0,017
32,1500	0,025
32,1750	0,025
32,2000	0,021
32,2250	0,021
32,2500	0,016
32,2750	0,015
32,3000	0,020
32,3250	0,020
32,3500	0,016
32,3750	0,018
32,4000	0,017
32,4250	0,018
32,4500	0,022
32,4750	0,020
32,5000	0,017
32,5250	0,018
32,5500	0,018
32,5750	0,019
32,6000	0,020
32,6250	0,023
32,6500	0,020
32,6750	0,019
32,7000	0,016
32,7250	0,020
32,7500	0,018
32,7750	0,017
32,8000	0,015
32,8250	0,014
32,8500	0,020
32,8750	0,021
32,9000	0,014
32,9250	0,016
32,9500	0,018
32,9750	0,020
33,0000	0,020
33,0250	0,020
33,0500	0,016
33,0750	0,016
33,1000	0,020
33,1250	0,023
33,1500	0,016
33,1750	0,018
33,2000	0,015
33,2250	0,016
33,2500	0,021
33,2750	0,018
33,3000	0,012
33,3250	0,013
33,3500	0,016
33,3750	0,018
33,4000	0,012
33,4250	0,015
33,4500	0,016
33,4750	0,016
33,5000	0,020
33,5250	0,021
33,5500	0,013
33,5750	0,015
33,6000	0,015
33,6250	0,015
33,6500	0,020
33,6750	0,018
33,7000	0,016
33,7250	0,016
33,7500	0,016
33,7750	0,020
33,8000	0,016
33,8250	0,016
33,8500	0,016
33,8750	0,015
33,9000	0,018
33,9250	0,021
33,9500	0,017
33,9750	0,018
34,0000	0,016
34,0250	0,018
34,0500	0,022
34,0750	0,021
34,1000	0,016
34,1250	0,017
34,1500	0,020
34,1750	0,021
34,2000	0,012
34,2250	0,012
34,2500	0,016
34,2750	0,017
34,3000	0,020
34,3250	0,022
34,3500	0,015
34,3750	0,016
34,4000	0,017
34,4250	0,015
34,4500	0,015
34,4750	0,015
34,5000	0,017
34,5250	0,020
34,5500	0,015
34,5750	0,016
34,6000	0,016
34,6250	0,018
34,6500	0,017
34,6750	0,019
34,7000	0,020
34,7250	0,020
34,7500	0,018
34,7750	0,019
34,8000	0,020
34,8250	0,021
34,8500	0,018
34,8750	0,019
34,9000	0,014
34,9250	0,013
34,9500	0,016
34,9750	0,018
35,0000	0,016
35,0250	0,018
35,0500	0,016
35,0750	0,015
35,1000	0,016
35,1250	0,019
35,1500	0,017
35,1750	0,017
35,2000	0,019
35,2250	0,020
35,2500	0,020
35,2750	0,022
35,3000	0,016
35,3250	0,016
35,3500	0,017
35,3750	0,020
35,4000	0,015
35,4250	0,015
35,4500	0,014
35,4750	0,015
35,5000	0,018
35,5250	0,020
35,5500	0,013
35,5750	0,013
35,6000	0,020
35,6250	0,021
35,6500	0,017
35,6750	0,017
35,7000	0,018
35,7250	0,018
35,7500	0,018
35,7750	0,019
35,8000	0,019
35,8250	0,019
35,8500	0,012
35,8750	0,014
35,9000	0,018
35,9250	0,017
35,9500	0,013
35,9750	0,015
36,0000	0,021
36,0250	0,023
36,0500	0,016
36,0750	0,016
36,1000	0,016
36,1250	0,018
36,1500	0,018
36,1750	0,018
36,2000	0,016
36,2250	0,017
36,2500	0,016
36,2750	0,016
36,3000	0,018
36,3250	0,020
36,3500	0,015
36,3750	0,014
36,4000	0,012
36,4250	0,012
36,4500	0,015
36,4750	0,018
36,5000	0,015
36,5250	0,017
36,5500	0,016
36,5750	0,018
36,6000	0,014
36,6250	0,013
36,6500	0,015
36,6750	0,017
36,7000	0,016
36,7250	0,018
36,7500	0,015
36,7750	0,016
36,8000	0,017
36,8250	0,020
36,8500	0,019
36,8750	0,018
36,9000	0,019
36,9250	0,020
36,9500	0,016
36,9750	0,015
37,0000	0,010
37,0250	0,014
37,0500	0,012
37,0750	0,012
37,1000	0,018
37,1250	0,020
37,1500	0,010
37,1750	0,013
37,2000	0,021
37,2250	0,022
37,2500	0,016
37,2750	0,020
37,3000	0,018
37,3250	0,019
37,3500	0,020
37,3750	0,021
37,4000	0,013
37,4250	0,015
37,4500	0,014
37,4750	0,016
37,5000	0,017
37,5250	0,020
37,5500	0,015
37,5750	0,015
37,6000	0,021
37,6250	0,023
37,6500	0,015
37,6750	0,015
37,7000	0,016
37,7250	0,018
37,7500	0,022
37,7750	0,020
37,8000	0,016
37,8250	0,018
37,8500	0,013
37,8750	0,013
37,9000	0,022
37,9250	0,024
37,9500	0,014
37,9750	0,015
38,0000	0,021
38,0250	0,022
38,0500	0,016
38,0750	0,019
38,1000	0,018
38,1250	0,017
38,1500	0,020
38,1750	0,021
38,2000	0,015
38,2250	0,018
38,2500	0,013
38,2750	0,013
38,3000	0,020
38,3250	0,021
38,3500	0,012
38,3750	0,015
38,4000	0,017
38,4250	0,016
38,4500	0,015
38,4750	0,018
38,5000	0,016
38,5250	0,016
38,5500	0,019
38,5750	0,020
38,6000	0,012
38,6250	0,015
38,6500	0,017
38,6750	0,017
38,7000	0,018
38,7250	0,018
38,7500	0,016
38,7750	0,019
38,8000	0,020
38,8250	0,018
38,8500	0,019
38,8750	0,014
38,9000	0,015
38,9250	0,016
38,9500	0,018
38,9750	0,016
39,0000	0,015
39,0250	0,019
39,0500	0,017
39,0750	0,010
39,1000	0,013
39,1250	0,019
39,1500	0,020
39,1750	0,015
39,2000	0,015
