Voltage, ChB, Run #8
Time ( s )	Voltage ( V )
0,0000	0,020
0,0250	0,016
0,0500	0,017
0,0750	0,022
0,1000	0,020
0,1250	0,020
0,1500	0,021
0,1750	0,016
0,2000	0,017
0,2250	0,015
0,2500	0,018
0,2750	0,016
0,3000	0,018
0,3250	0,012
0,3500	0,014
0,3750	0,020
0,4000	0,023
0,4250	0,015
0,4500	0,017
0,4750	0,020
0,5000	0,020
0,5250	0,016
0,5500	0,019
0,5750	0,016
0,6000	0,020
0,6250	0,016
0,6500	0,016
0,6750	0,018
0,7000	0,019
0,7250	0,016
0,7500	0,018
0,7750	0,016
0,8000	0,016
0,8250	0,015
0,8500	0,016
0,8750	0,018
0,9000	0,021
0,9250	0,017
0,9500	0,016
0,9750	0,015
1,0000	0,016
1,0250	0,015
1,0500	0,016
1,0750	0,015
1,1000	0,016
1,1250	0,013
1,1500	0,014
1,1750	0,016
1,2000	0,017
1,2250	0,020
1,2500	0,020
1,2750	0,016
1,3000	0,019
1,3250	0,013
1,3500	0,014
1,3750	0,018
1,4000	0,021
1,4250	0,015
1,4500	0,015
1,4750	0,019
1,5000	0,020
1,5250	0,015
1,5500	0,016
1,5750	0,017
1,6000	0,018
1,6250	0,017
1,6500	0,017
1,6750	0,020
1,7000	0,021
1,7250	0,016
1,7500	0,016
1,7750	0,018
1,8000	0,020
1,8250	0,012
1,8500	0,013
1,8750	0,015
1,9000	0,016
1,9250	0,020
1,9500	0,022
1,9750	0,011
2,0000	0,012
2,0250	0,018
2,0500	0,018
2,0750	0,012
2,1000	0,014
2,1250	0,021
2,1500	0,023
2,1750	0,015
2,2000	0,017
2,2250	0,019
2,2500	0,020
2,2750	0,016
2,3000	0,017
2,3250	0,018
2,3500	0,018
2,3750	0,020
2,4000	0,020
2,4250	0,017
2,4500	0,019
2,4750	0,016
2,5000	0,017
2,5250	0,019
2,5500	0,020
2,5750	0,012
2,6000	0,012
2,6250	0,017
2,6500	0,019
2,6750	0,014
2,7000	0,015
2,7250	0,020
2,7500	0,018
2,7750	0,015
2,8000	0,017
2,8250	0,018
2,8500	0,018
2,8750	0,015
2,9000	0,016
2,9250	0,020
2,9500	0,024
2,9750	0,014
3,0000	0,015
3,0250	0,020
3,0500	0,020
3,0750	0,020
3,1000	0,021
3,1250	0,021
3,1500	0,021
3,1750	0,014
3,2000	0,015
3,2250	0,023
3,2500	0,024
3,2750	0,013
3,3000	0,015
3,3250	0,018
3,3500	0,020
3,3750	0,013
3,4000	0,015
3,4250	0,016
3,4500	0,018
3,4750	0,015
3,5000	0,015
3,5250	0,020
3,5500	0,022
3,5750	0,013
3,6000	0,016
3,6250	0,018
3,6500	0,020
3,6750	0,018
3,7000	0,016
3,7250	0,016
3,7500	0,020
3,7750	0,021
3,8000	0,015
3,8250	0,015
3,8500	0,022
3,8750	0,023
3,9000	0,013
3,9250	0,014
3,9500	0,020
3,9750	0,020
4,0000	0,015
4,0250	0,015
4,0500	0,015
4,0750	0,015
4,1000	0,012
4,1250	0,010
4,1500	0,018
4,1750	0,018
4,2000	0,012
4,2250	0,013
4,2500	0,016
4,2750	0,018
4,3000	0,019
4,3250	0,016
4,3500	0,018
4,3750	0,018
4,4000	0,020
4,4250	0,020
4,4500	0,015
4,4750	0,017
4,5000	0,015
4,5250	0,015
4,5500	0,017
4,5750	0,015
4,6000	0,021
4,6250	0,021
4,6500	0,016
4,6750	0,018
4,7000	0,020
4,7250	0,020
4,7500	0,020
4,7750	0,019
4,8000	0,020
4,8250	0,020
4,8500	0,018
4,8750	0,020
4,9000	0,017
4,9250	0,016
4,9500	0,017
4,9750	0,016
5,0000	0,022
5,0250	0,023
5,0500	0,017
5,0750	0,018
5,1000	0,015
5,1250	0,015
5,1500	0,015
5,1750	0,014
5,2000	0,018
5,2250	0,020
5,2500	0,018
5,2750	0,018
5,3000	0,019
5,3250	0,020
5,3500	0,018
5,3750	0,016
5,4000	0,012
5,4250	0,012
5,4500	0,019
5,4750	0,020
5,5000	0,020
5,5250	0,019
5,5500	0,018
5,5750	0,019
5,6000	0,015
5,6250	0,016
5,6500	0,015
5,6750	0,016
5,7000	0,020
5,7250	0,017
5,7500	0,013
5,7750	0,012
5,8000	0,021
5,8250	0,023
5,8500	0,016
5,8750	0,017
5,9000	0,022
5,9250	0,020
5,9500	0,015
5,9750	0,017
6,0000	0,019
6,0250	0,020
6,0500	0,016
6,0750	0,015
6,1000	0,029
6,1250	0,029
6,1500	0,024
6,1750	0,025
6,2000	0,032
6,2250	0,033
6,2500	0,029
6,2750	0,026
6,3000	0,039
6,3250	0,039
6,3500	0,037
6,3750	0,038
6,4000	0,038
6,4250	0,038
6,4500	0,038
6,4750	0,037
6,5000	0,047
6,5250	0,047
6,5500	0,044
6,5750	0,045
6,6000	0,046
6,6250	0,048
6,6500	0,046
6,6750	0,046
6,7000	0,054
6,7250	0,053
6,7500	0,052
6,7750	0,054
6,8000	0,063
6,8250	0,064
6,8500	0,056
6,8750	0,056
6,9000	0,060
6,9250	0,060
6,9500	0,063
6,9750	0,065
7,0000	0,068
7,0250	0,068
7,0500	0,073
7,0750	0,072
7,1000	0,074
7,1250	0,076
7,1500	0,070
7,1750	0,071
7,2000	0,078
7,2250	0,078
7,2500	0,076
7,2750	0,076
7,3000	0,083
7,3250	0,084
7,3500	0,078
7,3750	0,078
7,4000	0,092
7,4250	0,090
7,4500	0,087
7,4750	0,088
7,5000	0,094
7,5250	0,093
7,5500	0,090
7,5750	0,089
7,6000	0,103
7,6250	0,103
7,6500	0,098
7,6750	0,101
7,7000	0,103
7,7250	0,104
7,7500	0,101
7,7750	0,102
7,8000	0,114
7,8250	0,117
7,8500	0,111
7,8750	0,110
7,9000	0,116
7,9250	0,116
7,9500	0,113
7,9750	0,114
8,0000	0,124
8,0250	0,123
8,0500	0,120
8,0750	0,120
8,1000	0,123
8,1250	0,126
8,1500	0,126
8,1750	0,126
8,2000	0,132
8,2250	0,132
8,2500	0,132
8,2750	0,134
8,3000	0,132
8,3250	0,134
8,3500	0,132
8,3750	0,132
8,4000	0,146
8,4250	0,148
8,4500	0,143
8,4750	0,145
8,5000	0,148
8,5250	0,150
8,5500	0,147
8,5750	0,150
8,6000	0,158
8,6250	0,157
8,6500	0,154
8,6750	0,157
8,7000	0,159
8,7250	0,159
8,7500	0,157
8,7750	0,158
8,8000	0,167
8,8250	0,168
8,8500	0,167
8,8750	0,168
8,9000	0,170
8,9250	0,171
8,9500	0,167
8,9750	0,171
9,0000	0,178
9,0250	0,178
9,0500	0,176
9,0750	0,178
9,1000	0,191
9,1250	0,193
9,1500	0,179
9,1750	0,179
9,2000	0,187
9,2250	0,188
9,2500	0,192
9,2750	0,194
9,3000	0,193
9,3250	0,193
9,3500	0,192
9,3750	0,195
9,4000	0,199
9,4250	0,202
9,4500	0,199
9,4750	0,198
9,5000	0,201
9,5250	0,204
9,5500	0,200
9,5750	0,203
9,6000	0,209
9,6250	0,209
9,6500	0,205
9,6750	0,208
9,7000	0,213
9,7250	0,213
9,7500	0,213
9,7750	0,215
9,8000	0,222
9,8250	0,223
9,8500	0,217
9,8750	0,217
9,9000	0,217
9,9250	0,220
9,9500	0,219
9,9750	0,223
10,0000	0,228
10,0250	0,226
10,0500	0,232
10,0750	0,233
10,1000	0,229
10,1250	0,231
10,1500	0,238
10,1750	0,239
10,2000	0,238
10,2250	0,239
10,2500	0,238
10,2750	0,239
10,3000	0,242
10,3250	0,243
10,3500	0,244
10,3750	0,245
10,4000	0,244
10,4250	0,247
10,4500	0,253
10,4750	0,251
10,5000	0,253
10,5250	0,254
10,5500	0,255
10,5750	0,258
10,6000	0,257
10,6250	0,256
10,6500	0,262
10,6750	0,262
10,7000	0,261
10,7250	0,262
10,7500	0,266
10,7750	0,267
10,8000	0,263
10,8250	0,266
10,8500	0,268
10,8750	0,269
10,9000	0,268
10,9250	0,270
10,9500	0,270
10,9750	0,277
11,0000	0,277
11,0250	0,275
11,0500	0,275
11,0750	0,279
11,1000	0,279
11,1250	0,280
11,1500	0,281
11,1750	0,284
11,2000	0,284
11,2250	0,286
11,2500	0,283
11,2750	0,294
11,3000	0,295
11,3250	0,295
11,3500	0,294
11,3750	0,300
11,4000	0,300
11,4250	0,302
11,4500	0,303
11,4750	0,311
11,5000	0,309
11,5250	0,333
11,5500	0,332
11,5750	0,339
11,6000	0,340
11,6250	0,348
11,6500	0,347
11,6750	0,352
11,7000	0,352
11,7250	0,359
11,7500	0,362
11,7750	0,369
11,8000	0,368
11,8250	0,371
11,8500	0,372
11,8750	0,370
11,9000	0,372
11,9250	0,381
11,9500	0,381
11,9750	0,385
12,0000	0,385
12,0250	0,380
12,0500	0,381
12,0750	0,389
12,1000	0,387
12,1250	0,386
12,1500	0,389
12,1750	0,390
12,2000	0,391
12,2250	0,388
12,2500	0,386
12,2750	0,388
12,3000	0,389
12,3250	0,381
12,3500	0,380
12,3750	0,385
12,4000	0,386
12,4250	0,384
12,4500	0,383
12,4750	0,387
12,5000	0,388
12,5250	0,379
12,5500	0,381
12,5750	0,382
12,6000	0,383
12,6250	0,384
12,6500	0,386
12,6750	0,378
12,7000	0,378
12,7250	0,379
12,7500	0,380
12,7750	0,379
12,8000	0,380
12,8250	0,385
12,8500	0,385
12,8750	0,386
12,9000	0,388
12,9250	0,391
12,9500	0,389
12,9750	0,389
13,0000	0,389
13,0250	0,400
13,0500	0,399
13,0750	0,400
13,1000	0,400
13,1250	0,400
13,1500	0,401
13,1750	0,396
13,2000	0,396
13,2250	0,408
13,2500	0,409
13,2750	0,399
13,3000	0,397
13,3250	0,406
13,3500	0,406
13,3750	0,403
13,4000	0,403
13,4250	0,411
13,4500	0,413
13,4750	0,414
13,5000	0,413
13,5250	0,413
13,5500	0,411
13,5750	0,412
13,6000	0,411
13,6250	0,414
13,6500	0,413
13,6750	0,414
13,7000	0,416
13,7250	0,417
13,7500	0,416
13,7750	0,415
13,8000	0,417
13,8250	0,422
13,8500	0,423
13,8750	0,420
13,9000	0,419
13,9250	0,422
13,9500	0,422
13,9750	0,422
14,0000	0,423
14,0250	0,424
14,0500	0,425
14,0750	0,430
14,1000	0,430
14,1250	0,435
14,1500	0,438
14,1750	0,434
14,2000	0,432
14,2250	0,440
14,2500	0,441
14,2750	0,438
14,3000	0,438
14,3250	0,449
14,3500	0,451
14,3750	0,447
14,4000	0,447
14,4250	0,451
14,4500	0,452
14,4750	0,449
14,5000	0,447
14,5250	0,457
14,5500	0,458
14,5750	0,454
14,6000	0,454
14,6250	0,458
14,6500	0,460
14,6750	0,456
14,7000	0,457
14,7250	0,469
14,7500	0,471
14,7750	0,468
14,8000	0,468
14,8250	0,473
14,8500	0,473
14,8750	0,471
14,9000	0,471
14,9250	0,486
14,9500	0,485
14,9750	0,477
15,0000	0,479
15,0250	0,483
15,0500	0,484
15,0750	0,483
15,1000	0,485
15,1250	0,495
15,1500	0,495
15,1750	0,491
15,2000	0,490
15,2250	0,498
15,2500	0,497
15,2750	0,489
15,3000	0,488
15,3250	0,499
15,3500	0,500
15,3750	0,504
15,4000	0,503
15,4250	0,506
15,4500	0,508
15,4750	0,509
15,5000	0,508
15,5250	0,518
15,5500	0,519
15,5750	0,513
15,6000	0,513
15,6250	0,519
15,6500	0,519
15,6750	0,520
15,7000	0,519
15,7250	0,523
15,7500	0,524
15,7750	0,526
15,8000	0,523
15,8250	0,535
15,8500	0,538
15,8750	0,533
15,9000	0,532
15,9250	0,538
15,9500	0,540
15,9750	0,537
16,0000	0,534
16,0250	0,544
16,0500	0,546
16,0750	0,540
16,1000	0,540
16,1250	0,549
16,1500	0,551
16,1750	0,549
16,2000	0,548
16,2250	0,558
16,2500	0,560
16,2750	0,557
16,3000	0,556
16,3250	0,562
16,3500	0,562
16,3750	0,557
16,4000	0,558
16,4250	0,572
16,4500	0,571
16,4750	0,565
16,5000	0,566
16,5250	0,571
16,5500	0,569
16,5750	0,568
16,6000	0,569
16,6250	0,583
16,6500	0,582
16,6750	0,576
16,7000	0,577
16,7250	0,586
16,7500	0,585
16,7750	0,580
16,8000	0,581
16,8250	0,589
16,8500	0,588
16,8750	0,588
16,9000	0,590
16,9250	0,598
16,9500	0,598
16,9750	0,593
17,0000	0,596
17,0250	0,602
17,0500	0,604
17,0750	0,601
17,1000	0,602
17,1250	0,606
17,1500	0,605
17,1750	0,607
17,2000	0,609
17,2250	0,618
17,2500	0,616
17,2750	0,615
17,3000	0,616
17,3250	0,620
17,3500	0,618
17,3750	0,620
17,4000	0,623
17,4250	0,623
17,4500	0,622
17,4750	0,624
17,5000	0,629
17,5250	0,629
17,5500	0,636
17,5750	0,636
17,6000	0,635
17,6250	0,635
17,6500	0,637
17,6750	0,638
17,7000	0,642
17,7250	0,643
17,7500	0,644
17,7750	0,647
17,8000	0,645
17,8250	0,644
17,8500	0,653
17,8750	0,654
17,9000	0,649
17,9250	0,649
17,9500	0,657
17,9750	0,661
18,0000	0,663
18,0250	0,662
18,0500	0,662
18,0750	0,665
18,1000	0,663
18,1250	0,663
18,1500	0,667
18,1750	0,670
18,2000	0,668
18,2250	0,668
18,2500	0,674
18,2750	0,676
18,3000	0,674
18,3250	0,674
18,3500	0,687
18,3750	0,689
18,4000	0,684
18,4250	0,687
18,4500	0,682
18,4750	0,684
18,5000	0,689
18,5250	0,688
18,5500	0,696
18,5750	0,698
18,6000	0,692
18,6250	0,692
18,6500	0,696
18,6750	0,698
18,7000	0,699
18,7250	0,701
18,7500	0,706
18,7750	0,708
18,8000	0,709
18,8250	0,707
18,8500	0,709
18,8750	0,710
18,9000	0,710
18,9250	0,707
18,9500	0,718
18,9750	0,718
19,0000	0,717
19,0250	0,717
19,0500	0,720
19,0750	0,720
19,1000	0,721
19,1250	0,721
19,1500	0,731
19,1750	0,732
19,2000	0,727
19,2250	0,726
19,2500	0,735
19,2750	0,735
19,3000	0,733
19,3250	0,732
19,3500	0,739
19,3750	0,735
19,4000	0,740
19,4250	0,740
19,4500	0,746
19,4750	0,747
19,5000	0,742
19,5250	0,742
19,5500	0,749
19,5750	0,748
19,6000	0,748
19,6250	0,746
19,6500	0,757
19,6750	0,756
19,7000	0,759
19,7250	0,758
19,7500	0,760
19,7750	0,761
19,8000	0,761
19,8250	0,759
19,8500	0,768
19,8750	0,770
19,9000	0,767
19,9250	0,767
19,9500	0,772
19,9750	0,772
20,0000	0,764
20,0250	0,765
20,0500	0,780
20,0750	0,780
20,1000	0,777
20,1250	0,776
20,1500	0,784
20,1750	0,782
20,2000	0,781
20,2250	0,782
20,2500	0,790
20,2750	0,791
20,3000	0,791
20,3250	0,792
20,3500	0,794
20,3750	0,794
20,4000	0,795
20,4250	0,793
20,4500	0,802
20,4750	0,806
20,5000	0,804
20,5250	0,803
20,5500	0,807
20,5750	0,805
20,6000	0,809
20,6250	0,809
20,6500	0,812
20,6750	0,812
20,7000	0,816
20,7250	0,815
20,7500	0,813
20,7750	0,814
20,8000	0,816
20,8250	0,817
20,8500	0,826
20,8750	0,828
20,9000	0,821
20,9250	0,820
20,9500	0,829
20,9750	0,828
21,0000	0,831
21,0250	0,831
21,0500	0,836
21,0750	0,837
21,1000	0,837
21,1250	0,839
21,1500	0,850
21,1750	0,850
21,2000	0,850
21,2250	0,850
21,2500	0,858
21,2750	0,860
21,3000	0,862
21,3250	0,862
21,3500	0,873
21,3750	0,873
21,4000	0,874
21,4250	0,875
21,4500	0,886
21,4750	0,884
21,5000	0,886
21,5250	0,886
21,5500	0,897
21,5750	0,900
21,6000	0,906
21,6250	0,906
21,6500	0,908
21,6750	0,908
21,7000	0,907
21,7250	0,907
21,7500	0,913
21,7750	0,913
21,8000	0,916
21,8250	0,914
21,8500	0,916
21,8750	0,916
21,9000	0,920
21,9250	0,921
21,9500	0,920
21,9750	0,921
22,0000	0,924
22,0250	0,925
22,0500	0,920
22,0750	0,920
22,1000	0,919
22,1250	0,919
22,1500	0,923
22,1750	0,923
22,2000	0,927
22,2250	0,927
22,2500	0,932
22,2750	0,933
22,3000	0,933
22,3250	0,933
22,3500	0,933
22,3750	0,933
22,4000	0,937
22,4250	0,940
22,4500	0,938
22,4750	0,939
22,5000	0,941
22,5250	0,941
22,5500	0,939
22,5750	0,940
22,6000	0,945
22,6250	0,945
22,6500	0,950
22,6750	0,951
22,7000	0,952
22,7250	0,952
22,7500	0,954
22,7750	0,956
22,8000	0,963
22,8250	0,962
22,8500	0,963
22,8750	0,964
22,9000	0,972
22,9250	0,970
22,9500	0,974
22,9750	0,974
23,0000	0,976
23,0250	0,977
23,0500	0,978
23,0750	0,977
23,1000	0,983
23,1250	0,983
23,1500	0,985
23,1750	0,985
23,2000	0,983
23,2250	0,982
23,2500	0,986
23,2750	0,987
23,3000	0,987
23,3250	0,988
23,3500	0,995
23,3750	0,995
23,4000	0,996
23,4250	0,995
23,4500	0,999
23,4750	1,000
23,5000	1,000
23,5250	0,999
23,5500	1,007
23,5750	1,006
23,6000	1,005
23,6250	1,007
23,6500	1,010
23,6750	1,011
23,7000	1,012
23,7250	1,013
23,7500	1,017
23,7750	1,019
23,8000	1,019
23,8250	1,019
23,8500	1,019
23,8750	1,019
23,9000	1,021
23,9250	1,021
23,9500	1,023
23,9750	1,034
24,0000	1,035
24,0250	1,033
24,0500	1,035
24,0750	1,034
24,1000	1,035
24,1250	1,033
24,1500	1,036
24,1750	1,041
24,2000	1,042
24,2250	1,044
24,2500	1,046
24,2750	1,047
24,3000	1,047
24,3250	1,053
24,3500	1,053
24,3750	1,055
24,4000	1,058
24,4250	1,055
24,4500	1,055
24,4750	1,069
24,5000	1,069
24,5250	1,068
24,5500	1,067
24,5750	1,069
24,6000	1,069
24,6250	1,069
24,6500	1,070
24,6750	1,085
24,7000	1,085
24,7250	1,077
24,7500	1,077
24,7750	1,081
24,8000	1,085
24,8250	1,080
24,8500	1,082
24,8750	1,091
24,9000	1,093
24,9250	1,096
24,9500	1,097
24,9750	1,101
25,0000	1,104
25,0250	1,101
25,0500	1,101
25,0750	1,111
25,1000	1,112
25,1250	1,107
25,1500	1,106
25,1750	1,113
25,2000	1,114
25,2250	1,110
25,2500	1,111
25,2750	1,121
25,3000	1,122
25,3250	1,116
25,3500	1,116
25,3750	1,132
25,4000	1,132
25,4250	1,124
25,4500	1,126
25,4750	1,133
25,5000	1,135
25,5250	1,130
25,5500	1,132
25,5750	1,144
25,6000	1,146
25,6250	1,138
25,6500	1,136
25,6750	1,147
25,7000	1,149
25,7250	1,143
25,7500	1,144
25,7750	1,154
25,8000	1,157
25,8250	1,152
25,8500	1,153
25,8750	1,165
25,9000	1,167
25,9250	1,161
25,9500	1,161
25,9750	1,172
26,0000	1,173
26,0250	1,171
26,0500	1,171
26,0750	1,178
26,1000	1,179
26,1250	1,173
26,1500	1,173
26,1750	1,187
26,2000	1,190
26,2250	1,185
26,2500	1,187
26,2750	1,192
26,3000	1,193
26,3250	1,190
26,3500	1,190
26,3750	1,202
26,4000	1,203
26,4250	1,200
26,4500	1,199
26,4750	1,205
26,5000	1,205
26,5250	1,202
26,5500	1,202
26,5750	1,216
26,6000	1,216
26,6250	1,218
26,6500	1,218
26,6750	1,224
26,7000	1,223
26,7250	1,217
26,7500	1,220
26,7750	1,227
26,8000	1,229
26,8250	1,228
26,8500	1,228
26,8750	1,238
26,9000	1,238
26,9250	1,235
26,9500	1,235
26,9750	1,240
27,0000	1,243
27,0250	1,241
27,0500	1,242
27,0750	1,257
27,1000	1,257
27,1250	1,252
27,1500	1,252
27,1750	1,260
27,2000	1,262
27,2250	1,256
27,2500	1,257
27,2750	1,268
27,3000	1,269
27,3250	1,268
27,3500	1,269
27,3750	1,276
27,4000	1,278
27,4250	1,271
27,4500	1,272
27,4750	1,289
27,5000	1,287
27,5250	1,281
27,5500	1,281
27,5750	1,283
27,6000	1,285
27,6250	1,291
27,6500	1,290
27,6750	1,299
27,7000	1,298
27,7250	1,290
27,7500	1,289
27,7750	1,304
27,8000	1,305
27,8250	1,302
27,8500	1,303
27,8750	1,309
27,9000	1,310
27,9250	1,310
27,9500	1,309
27,9750	1,328
28,0000	1,328
28,0250	1,323
28,0500	1,324
28,0750	1,328
28,1000	1,330
28,1250	1,327
28,1500	1,327
28,1750	1,337
28,2000	1,336
28,2250	1,337
28,2500	1,336
28,2750	1,342
28,3000	1,342
28,3250	1,338
28,3500	1,339
28,3750	1,352
28,4000	1,351
28,4250	1,356
28,4500	1,356
28,4750	1,359
28,5000	1,360
28,5250	1,356
28,5500	1,357
28,5750	1,373
28,6000	1,374
28,6250	1,370
28,6500	1,370
28,6750	1,375
28,7000	1,375
28,7250	1,373
28,7500	1,373
28,7750	1,379
28,8000	1,379
28,8250	1,387
28,8500	1,388
28,8750	1,393
28,9000	1,393
28,9250	1,393
28,9500	1,393
28,9750	1,393
29,0000	1,395
29,0250	1,400
29,0500	1,400
29,0750	1,403
29,1000	1,404
29,1250	1,412
29,1500	1,414
29,1750	1,414
29,2000	1,414
29,2250	1,414
29,2500	1,415
29,2750	1,422
29,3000	1,422
29,3250	1,423
29,3500	1,424
29,3750	1,427
29,4000	1,429
29,4250	1,429
29,4500	1,429
29,4750	1,443
29,5000	1,444
29,5250	1,443
29,5500	1,444
29,5750	1,449
29,6000	1,448
29,6250	1,447
29,6500	1,447
29,6750	1,455
29,7000	1,455
29,7250	1,449
29,7500	1,448
29,7750	1,463
29,8000	1,465
29,8250	1,466
29,8500	1,465
29,8750	1,471
29,9000	1,471
29,9250	1,473
29,9500	1,473
29,9750	1,479
30,0000	1,478
30,0250	1,480
30,0500	1,480
30,0750	1,485
30,1000	1,484
30,1250	1,483
30,1500	1,483
30,1750	1,499
30,2000	1,500
30,2250	1,496
30,2500	1,497
30,2750	1,498
30,3000	1,507
30,3250	1,506
30,3500	1,499
30,3750	1,500
30,4000	1,511
30,4250	1,511
30,4500	1,510
30,4750	1,509
30,5000	1,513
30,5250	1,515
30,5500	1,512
30,5750	1,512
30,6000	1,526
30,6250	1,528
30,6500	1,524
30,6750	1,525
30,7000	1,536
30,7250	1,537
30,7500	1,530
30,7750	1,533
30,8000	1,538
30,8250	1,540
30,8500	1,539
30,8750	1,539
30,9000	1,549
30,9250	1,548
30,9500	1,553
30,9750	1,552
31,0000	1,553
31,0250	1,553
31,0500	0,031
31,0750	0,033
31,1000	0,017
31,1250	0,020
31,1500	0,017
31,1750	0,018
31,2000	0,016
31,2250	0,019
31,2500	0,020
31,2750	0,020
31,3000	0,021
31,3250	0,021
31,3500	0,014
31,3750	0,015
31,4000	0,014
31,4250	0,016
31,4500	0,016
31,4750	0,016
31,5000	0,014
31,5250	0,015
31,5500	0,015
31,5750	0,018
31,6000	0,019
31,6250	0,020
31,6500	0,013
31,6750	0,015
31,7000	0,012
31,7250	0,013
31,7500	0,020
31,7750	0,021
31,8000	0,020
31,8250	0,020
31,8500	0,015
31,8750	0,015
31,9000	0,010
31,9250	0,012
31,9500	0,021
31,9750	0,021
32,0000	0,012
32,0250	0,013
32,0500	0,016
32,0750	0,016
32,1000	0,018
32,1250	0,020
32,1500	0,015
32,1750	0,018
32,2000	0,019
32,2250	0,020
32,2500	0,013
32,2750	0,015
32,3000	0,019
32,3250	0,020
32,3500	0,014
32,3750	0,015
32,4000	0,018
32,4250	0,018
32,4500	0,016
32,4750	0,017
32,5000	0,018
32,5250	0,020
32,5500	0,015
32,5750	0,017
32,6000	0,016
32,6250	0,019
32,6500	0,019
32,6750	0,019
32,7000	0,020
32,7250	0,022
32,7500	0,015
32,7750	0,015
32,8000	0,016
32,8250	0,018
32,8500	0,014
32,8750	0,016
32,9000	0,016
32,9250	0,020
32,9500	0,015
32,9750	0,016
33,0000	0,019
33,0250	0,019
33,0500	0,014
33,0750	0,015
33,1000	0,016
33,1250	0,018
33,1500	0,015
33,1750	0,018
33,2000	0,017
33,2250	0,019
33,2500	0,010
33,2750	0,012
33,3000	0,018
33,3250	0,020
33,3500	0,018
33,3750	0,020
33,4000	0,020
33,4250	0,020
33,4500	0,015
33,4750	0,016
33,5000	0,017
33,5250	0,019
33,5500	0,014
33,5750	0,016
33,6000	0,015
33,6250	0,017
33,6500	0,015
33,6750	0,016
33,7000	0,016
33,7250	0,016
33,7500	0,008
33,7750	0,009
33,8000	0,016
33,8250	0,017
33,8500	0,016
33,8750	0,016
33,9000	0,017
33,9250	0,018
33,9500	0,018
33,9750	0,020
34,0000	0,017
34,0250	0,018
34,0500	0,018
34,0750	0,020
34,1000	0,016
34,1250	0,020
34,1500	0,019
34,1750	0,019
34,2000	0,018
34,2250	0,020
34,2500	0,020
34,2750	0,022
34,3000	0,015
34,3250	0,015
34,3500	0,018
34,3750	0,018
34,4000	0,019
34,4250	0,021
34,4500	0,020
34,4750	0,019
34,5000	0,018
34,5250	0,019
34,5500	0,023
34,5750	0,023
34,6000	0,013
34,6250	0,015
34,6500	0,019
34,6750	0,020
34,7000	0,016
34,7250	0,018
34,7500	0,015
34,7750	0,017
34,8000	0,013
34,8250	0,016
34,8500	0,019
34,8750	0,021
34,9000	0,015
34,9250	0,015
34,9500	0,016
34,9750	0,020
35,0000	0,016
35,0250	0,017
35,0500	0,013
35,0750	0,013
35,1000	0,015
35,1250	0,018
35,1500	0,019
35,1750	0,020
35,2000	0,016
35,2250	0,017
35,2500	0,021
35,2750	0,020
35,3000	0,016
35,3250	0,016
35,3500	0,021
35,3750	0,023
35,4000	0,015
35,4250	0,017
35,4500	0,017
35,4750	0,019
35,5000	0,021
35,5250	0,023
35,5500	0,015
35,5750	0,016
35,6000	0,017
35,6250	0,019
35,6500	0,014
35,6750	0,015
35,7000	0,018
35,7250	0,018
35,7500	0,017
35,7750	0,018
35,8000	0,015
35,8250	0,018
35,8500	0,018
35,8750	0,016
35,9000	0,016
35,9250	0,020
35,9500	0,018
35,9750	0,016
36,0000	0,016
36,0250	0,021
36,0500	0,021
36,0750	0,016
36,1000	0,016
36,1250	0,020
36,1500	0,020
36,1750	0,019
36,2000	0,018
36,2250	0,020
36,2500	0,020
36,2750	0,014
36,3000	0,014
36,3250	0,017
36,3500	0,015
36,3750	0,016
36,4000	0,017
36,4250	0,021
36,4500	0,022
36,4750	0,016
36,5000	0,017
36,5250	0,023
36,5500	0,025
36,5750	0,018
36,6000	0,017
36,6250	0,020
36,6500	0,021
36,6750	0,015
36,7000	0,016
36,7250	0,020
36,7500	0,019
36,7750	0,017
36,8000	0,016
36,8250	0,017
36,8500	0,016
36,8750	0,015
36,9000	0,015
36,9250	0,023
36,9500	0,022
36,9750	0,018
37,0000	0,020
37,0250	0,014
37,0500	0,015
37,0750	0,021
37,1000	0,022
37,1250	0,016
37,1500	0,015
37,1750	0,020
37,2000	0,020
37,2250	0,015
37,2500	0,015
37,2750	0,020
37,3000	0,021
37,3250	0,016
37,3500	0,016
37,3750	0,020
37,4000	0,019
37,4250	0,015
37,4500	0,015
37,4750	0,022
37,5000	0,023
37,5250	0,016
37,5500	0,015
37,5750	0,016
37,6000	0,017
37,6250	0,018
37,6500	0,018
37,6750	0,021
37,7000	0,021
37,7250	0,018
37,7500	0,019
37,7750	0,018
37,8000	0,020
37,8250	0,019
37,8500	0,020
37,8750	0,020
37,9000	0,020
37,9250	0,016
37,9500	0,016
37,9750	0,017
38,0000	0,018
38,0250	0,016
38,0500	0,016
38,0750	0,018
38,1000	0,018
38,1250	0,020
38,1500	0,020
38,1750	0,019
38,2000	0,018
38,2250	0,016
38,2500	0,017
38,2750	0,018
38,3000	0,020
38,3250	0,017
38,3500	0,017
38,3750	0,021
38,4000	0,021
38,4250	0,015
38,4500	0,016
38,4750	0,022
38,5000	0,022
38,5250	0,015
38,5500	0,015
38,5750	0,017
38,6000	0,018
38,6250	0,013
38,6500	0,013
38,6750	0,013
38,7000	0,013
38,7250	0,016
38,7500	0,015
38,7750	0,017
38,8000	0,018
38,8250	0,019
38,8500	0,019
38,8750	0,010
38,9000	0,010
38,9250	0,019
38,9500	0,018
38,9750	0,014
39,0000	0,015
39,0250	0,019
39,0500	0,018
39,0750	0,013
39,1000	0,014
39,1250	0,021
39,1500	0,024
